### Fourier Spectrum ###
#File name is /home/nakaji/BIDO/Kyoto/machiya/Surugaya/sr226ud.fft
# Hz sec ch1 ch2 ch3 ...
# natural frequency
# 13.477   1.855   2.734   7.031 
  0.586   1.463 5.581e-02 6.942e-02 1.273e-01 8.096e-02
  0.684   1.280 3.558e-02 4.498e-02 8.529e-02 5.341e-02
  0.781   1.138 2.396e-02 3.021e-02 7.130e-02 3.921e-02
  0.879   1.024 1.964e-02 2.364e-02 7.671e-02 3.498e-02
  0.977   0.931 1.945e-02 2.218e-02 9.587e-02 3.678e-02
  1.074   0.853 2.182e-02 2.457e-02 1.201e-01 3.994e-02
  1.172   0.788 2.336e-02 2.495e-02 1.373e-01 3.971e-02
  1.270   0.731 2.281e-02 2.539e-02 1.507e-01 3.745e-02
  1.367   0.683 2.037e-02 2.740e-02 1.654e-01 3.497e-02
  1.465   0.640 2.015e-02 3.221e-02 1.956e-01 3.287e-02
  1.562   0.602 2.412e-02 4.569e-02 2.473e-01 3.338e-02
  1.660   0.569 3.287e-02 7.360e-02 3.360e-01 3.913e-02
  1.758   0.539 4.388e-02 1.198e-01 4.515e-01 5.001e-02
  1.855   0.512 5.411e-02 1.820e-01 5.819e-01 6.239e-02
  1.953   0.488 5.702e-02 2.485e-01 7.033e-01 6.990e-02
  2.051   0.465 6.218e-02 3.039e-01 7.331e-01 7.982e-02
  2.148   0.445 6.905e-02 2.570e-01 6.249e-01 8.858e-02
  2.246   0.427 7.758e-02 1.994e-01 5.372e-01 1.017e-01
  2.344   0.410 9.373e-02 1.554e-01 5.660e-01 1.234e-01
  2.441   0.394 1.055e-01 1.340e-01 7.413e-01 1.374e-01
  2.539   0.379 9.766e-02 1.121e-01 9.702e-01 1.229e-01
  2.637   0.366 8.442e-02 9.225e-02 1.262e+00 9.823e-02
  2.734   0.353 6.901e-02 7.690e-02 1.451e+00 7.578e-02
  2.832   0.341 6.191e-02 6.697e-02 1.560e+00 6.083e-02
  2.930   0.330 6.348e-02 5.932e-02 1.381e+00 5.664e-02
  3.027   0.320 7.544e-02 6.070e-02 1.131e+00 5.765e-02
  3.125   0.310 9.422e-02 6.797e-02 9.307e-01 6.175e-02
  3.223   0.301 1.035e-01 6.861e-02 7.178e-01 6.903e-02
  3.320   0.293 1.102e-01 7.320e-02 5.256e-01 8.032e-02
  3.418   0.284 1.026e-01 7.668e-02 3.634e-01 9.194e-02
  3.516   0.277 9.356e-02 7.457e-02 2.452e-01 1.007e-01
  3.613   0.269 8.905e-02 7.496e-02 1.648e-01 1.116e-01
  3.711   0.263 7.794e-02 6.523e-02 1.269e-01 1.041e-01
  3.809   0.256 7.479e-02 6.218e-02 1.145e-01 1.017e-01
  3.906   0.250 6.951e-02 6.689e-02 1.191e-01 1.072e-01
  4.004   0.244 6.950e-02 7.294e-02 1.337e-01 1.154e-01
  4.102   0.238 7.001e-02 7.426e-02 1.280e-01 1.253e-01
  4.199   0.233 7.592e-02 7.882e-02 1.238e-01 1.507e-01
  4.297   0.228 7.799e-02 8.028e-02 1.144e-01 1.846e-01
  4.395   0.223 6.787e-02 8.116e-02 1.117e-01 2.164e-01
  4.492   0.218 5.771e-02 7.571e-02 1.282e-01 2.360e-01
  4.590   0.213 5.138e-02 6.714e-02 1.555e-01 2.108e-01
  4.688   0.209 5.260e-02 6.366e-02 1.535e-01 1.888e-01
  4.785   0.205 5.369e-02 5.202e-02 1.544e-01 1.580e-01
  4.883   0.201 5.356e-02 4.346e-02 1.456e-01 1.442e-01
  4.980   0.197 4.899e-02 4.156e-02 1.526e-01 1.246e-01
  5.078   0.193 4.584e-02 4.628e-02 1.826e-01 1.003e-01
  5.176   0.190 4.565e-02 5.426e-02 2.339e-01 8.583e-02
  5.273   0.186 4.777e-02 5.664e-02 2.668e-01 8.669e-02
  5.371   0.183 4.994e-02 5.133e-02 3.189e-01 9.700e-02
  5.469   0.180 5.220e-02 4.828e-02 3.675e-01 1.079e-01
  5.566   0.177 4.710e-02 4.860e-02 3.962e-01 1.190e-01
  5.664   0.174 4.363e-02 4.934e-02 4.713e-01 1.365e-01
  5.762   0.171 4.145e-02 4.611e-02 5.428e-01 1.378e-01
  5.859   0.168 4.533e-02 4.797e-02 6.201e-01 1.532e-01
  5.957   0.165 5.090e-02 5.105e-02 6.679e-01 1.823e-01
  6.055   0.163 6.072e-02 5.539e-02 7.142e-01 2.130e-01
  6.152   0.160 6.672e-02 5.154e-02 6.761e-01 2.217e-01
  6.250   0.158 7.118e-02 4.615e-02 5.529e-01 2.684e-01
  6.348   0.155 6.784e-02 4.781e-02 4.366e-01 3.406e-01
  6.445   0.153 6.312e-02 5.532e-02 3.662e-01 4.240e-01
  6.543   0.151 6.153e-02 5.977e-02 3.391e-01 4.628e-01
  6.641   0.148 5.318e-02 5.490e-02 3.559e-01 4.995e-01
  6.738   0.146 4.983e-02 5.227e-02 3.533e-01 5.517e-01
  6.836   0.144 5.223e-02 5.523e-02 3.428e-01 6.613e-01
  6.934   0.142 5.419e-02 6.260e-02 3.301e-01 8.265e-01
  7.031   0.140 6.160e-02 6.968e-02 2.949e-01 9.967e-01
  7.129   0.138 6.747e-02 7.754e-02 2.731e-01 1.158e+00
  7.227   0.137 7.146e-02 8.000e-02 2.564e-01 1.108e+00
  7.324   0.135 7.648e-02 8.335e-02 2.367e-01 9.631e-01
  7.422   0.133 7.850e-02 8.203e-02 2.270e-01 7.817e-01
  7.520   0.131 8.158e-02 8.006e-02 2.018e-01 6.608e-01
  7.617   0.130 8.452e-02 8.184e-02 1.790e-01 6.141e-01
  7.715   0.128 9.194e-02 9.258e-02 1.609e-01 6.352e-01
  7.812   0.126 1.045e-01 1.010e-01 1.611e-01 6.820e-01
  7.910   0.125 1.080e-01 9.484e-02 1.570e-01 6.321e-01
  8.008   0.123 1.020e-01 8.030e-02 1.625e-01 5.531e-01
  8.105   0.122 9.094e-02 7.030e-02 1.654e-01 5.116e-01
  8.203   0.120 7.971e-02 5.793e-02 1.707e-01 4.693e-01
  8.301   0.119 7.483e-02 4.843e-02 1.519e-01 4.109e-01
  8.398   0.118 7.931e-02 4.365e-02 1.340e-01 3.689e-01
  8.496   0.116 8.436e-02 4.377e-02 1.197e-01 3.166e-01
  8.594   0.115 8.683e-02 4.888e-02 1.122e-01 2.787e-01
  8.691   0.114 7.412e-02 5.513e-02 1.087e-01 2.885e-01
  8.789   0.113 6.592e-02 6.396e-02 1.075e-01 3.389e-01
  8.887   0.111 6.626e-02 7.114e-02 1.269e-01 3.801e-01
  8.984   0.110 7.425e-02 7.086e-02 1.623e-01 3.822e-01
  9.082   0.109 8.517e-02 7.006e-02 2.118e-01 3.180e-01
  9.180   0.108 9.006e-02 6.774e-02 2.528e-01 2.631e-01
  9.277   0.107 9.552e-02 6.288e-02 2.516e-01 2.164e-01
  9.375   0.106 9.718e-02 5.444e-02 2.224e-01 1.856e-01
  9.473   0.104 9.861e-02 5.123e-02 2.112e-01 1.838e-01
  9.570   0.103 9.146e-02 5.004e-02 2.051e-01 1.742e-01
  9.668   0.102 8.815e-02 5.203e-02 1.879e-01 1.589e-01
  9.766   0.101 8.297e-02 5.873e-02 1.603e-01 1.553e-01
  9.863   0.100 7.486e-02 6.237e-02 1.360e-01 1.638e-01
  9.961   0.099 7.258e-02 6.780e-02 1.285e-01 1.504e-01
 10.059   0.098 7.184e-02 7.834e-02 1.140e-01 1.335e-01
 10.156   0.098 8.128e-02 8.646e-02 1.160e-01 1.100e-01
 10.254   0.097 9.467e-02 9.930e-02 1.296e-01 1.016e-01
 10.352   0.096 9.788e-02 1.055e-01 1.395e-01 1.081e-01
 10.449   0.095 9.585e-02 1.012e-01 1.432e-01 1.250e-01
 10.547   0.094 1.019e-01 9.865e-02 1.351e-01 1.457e-01
 10.645   0.093 1.004e-01 8.748e-02 1.197e-01 1.517e-01
 10.742   0.092 9.764e-02 8.735e-02 1.118e-01 1.484e-01
 10.840   0.091 9.265e-02 9.361e-02 1.001e-01 1.522e-01
 10.938   0.091 9.301e-02 9.812e-02 9.436e-02 1.612e-01
 11.035   0.090 8.503e-02 9.368e-02 1.012e-01 1.491e-01
 11.133   0.089 8.062e-02 7.608e-02 1.120e-01 1.374e-01
 11.230   0.088 8.443e-02 6.283e-02 1.231e-01 1.309e-01
 11.328   0.088 9.238e-02 5.609e-02 1.351e-01 1.183e-01
 11.426   0.087 9.503e-02 4.974e-02 1.485e-01 1.159e-01
 11.523   0.086 9.762e-02 4.550e-02 1.424e-01 1.131e-01
 11.621   0.085 9.862e-02 4.676e-02 1.393e-01 1.215e-01
 11.719   0.085 1.048e-01 4.976e-02 1.443e-01 1.417e-01
 11.816   0.084 1.103e-01 5.843e-02 1.697e-01 1.672e-01
 11.914   0.083 1.224e-01 6.574e-02 1.880e-01 1.992e-01
 12.012   0.083 1.309e-01 7.178e-02 1.982e-01 2.345e-01
 12.109   0.082 1.219e-01 8.131e-02 1.656e-01 2.249e-01
 12.207   0.081 1.073e-01 7.703e-02 1.337e-01 2.143e-01
 12.305   0.081 9.829e-02 7.139e-02 1.097e-01 1.975e-01
 12.402   0.080 9.517e-02 6.711e-02 1.035e-01 1.944e-01
 12.500   0.079 1.048e-01 5.651e-02 1.008e-01 1.992e-01
 12.598   0.079 1.126e-01 5.011e-02 8.414e-02 1.873e-01
 12.695   0.078 1.082e-01 4.875e-02 7.180e-02 1.782e-01
 12.793   0.078 9.463e-02 4.952e-02 7.027e-02 1.692e-01
 12.891   0.077 8.468e-02 4.962e-02 7.071e-02 1.586e-01
 12.988   0.076 7.224e-02 4.601e-02 7.710e-02 1.477e-01
 13.086   0.076 6.605e-02 4.248e-02 7.642e-02 1.458e-01
 13.184   0.075 6.078e-02 3.846e-02 7.219e-02 1.567e-01
 13.281   0.075 6.321e-02 3.653e-02 6.848e-02 1.629e-01
 13.379   0.074 6.733e-02 3.639e-02 6.765e-02 1.516e-01
 13.477   0.074 7.040e-02 3.665e-02 6.482e-02 1.372e-01
 13.574   0.073 6.698e-02 3.915e-02 6.521e-02 1.319e-01
 13.672   0.073 5.567e-02 4.530e-02 5.494e-02 1.044e-01
 13.770   0.072 4.810e-02 5.061e-02 4.675e-02 8.230e-02
 13.867   0.072 4.648e-02 5.496e-02 4.588e-02 6.876e-02
 13.965   0.071 5.157e-02 6.205e-02 5.034e-02 7.174e-02
 14.062   0.071 6.234e-02 6.017e-02 5.059e-02 8.033e-02
 14.160   0.070 6.886e-02 6.364e-02 4.802e-02 9.177e-02
 14.258   0.070 7.852e-02 7.459e-02 4.976e-02 1.099e-01
 14.355   0.069 8.799e-02 8.457e-02 5.197e-02 1.189e-01
 14.453   0.069 8.716e-02 8.377e-02 5.765e-02 1.120e-01
 14.551   0.068 7.947e-02 8.308e-02 5.393e-02 1.021e-01
 14.648   0.068 6.745e-02 6.812e-02 5.510e-02 9.833e-02
 14.746   0.067 6.048e-02 5.221e-02 5.687e-02 1.018e-01
 14.844   0.067 6.050e-02 4.230e-02 5.735e-02 9.756e-02
 14.941   0.066 6.250e-02 4.068e-02 4.817e-02 9.809e-02
 15.039   0.066 6.565e-02 4.064e-02 3.932e-02 9.653e-02
 15.137   0.066 7.347e-02 4.027e-02 3.627e-02 9.401e-02
 15.234   0.065 6.807e-02 3.862e-02 3.916e-02 9.136e-02
 15.332   0.065 6.542e-02 3.434e-02 4.071e-02 8.325e-02
 15.430   0.064 5.976e-02 3.233e-02 4.474e-02 7.343e-02
 15.527   0.064 5.358e-02 2.839e-02 5.117e-02 7.152e-02
 15.625   0.064 4.427e-02 2.812e-02 5.034e-02 6.760e-02
 15.723   0.063 4.054e-02 3.117e-02 4.366e-02 6.305e-02
 15.820   0.063 4.164e-02 3.159e-02 3.901e-02 5.774e-02
 15.918   0.062 4.845e-02 3.020e-02 3.405e-02 5.052e-02
 16.016   0.062 5.359e-02 2.782e-02 2.972e-02 4.419e-02
 16.113   0.062 6.339e-02 2.712e-02 2.756e-02 4.471e-02
 16.211   0.061 6.789e-02 2.707e-02 2.915e-02 4.740e-02
 16.309   0.061 6.938e-02 2.952e-02 3.268e-02 5.000e-02
 16.406   0.061 7.050e-02 3.035e-02 3.742e-02 4.361e-02
 16.504   0.060 7.142e-02 3.352e-02 3.992e-02 4.166e-02
 16.602   0.060 7.629e-02 4.135e-02 3.776e-02 4.916e-02
 16.699   0.060 8.123e-02 5.513e-02 3.906e-02 6.264e-02
 16.797   0.059 9.060e-02 7.333e-02 4.454e-02 7.798e-02
 16.895   0.059 9.559e-02 9.093e-02 5.141e-02 8.584e-02
 16.992   0.059 8.356e-02 8.360e-02 5.014e-02 7.264e-02
 17.090   0.058 7.412e-02 7.137e-02 4.401e-02 5.842e-02
 17.188   0.058 6.641e-02 6.312e-02 3.511e-02 5.020e-02
 17.285   0.058 6.313e-02 5.264e-02 2.984e-02 4.757e-02
 17.383   0.057 6.223e-02 4.502e-02 2.891e-02 5.059e-02
 17.480   0.057 6.677e-02 3.821e-02 2.860e-02 5.286e-02
 17.578   0.057 6.281e-02 3.336e-02 2.831e-02 5.640e-02
 17.676   0.056 5.597e-02 2.829e-02 2.785e-02 5.951e-02
 17.773   0.056 5.164e-02 2.709e-02 2.696e-02 6.070e-02
 17.871   0.056 4.405e-02 2.957e-02 2.694e-02 5.541e-02
 17.969   0.055 4.102e-02 3.286e-02 2.542e-02 5.107e-02
 18.066   0.055 4.250e-02 3.765e-02 2.519e-02 5.355e-02
 18.164   0.055 4.673e-02 4.049e-02 2.312e-02 5.507e-02
 18.262   0.054 4.647e-02 4.611e-02 2.275e-02 5.324e-02
 18.359   0.054 4.385e-02 4.602e-02 2.477e-02 4.648e-02
 18.457   0.054 4.367e-02 4.664e-02 2.652e-02 4.263e-02
 18.555   0.054 4.686e-02 4.411e-02 2.692e-02 3.746e-02
 18.652   0.053 5.075e-02 4.616e-02 2.795e-02 3.487e-02
 18.750   0.053 5.776e-02 4.606e-02 3.062e-02 3.301e-02
 18.848   0.053 6.102e-02 4.333e-02 3.277e-02 3.438e-02
 18.945   0.053 6.827e-02 3.659e-02 3.611e-02 3.200e-02
 19.043   0.052 7.332e-02 3.304e-02 4.329e-02 3.066e-02
 19.141   0.052 6.632e-02 3.225e-02 4.819e-02 2.741e-02
 19.238   0.052 6.678e-02 3.836e-02 4.918e-02 2.728e-02
 19.336   0.051 7.289e-02 4.769e-02 4.778e-02 2.955e-02
 19.434   0.051 8.471e-02 5.675e-02 4.768e-02 3.218e-02
 19.531   0.051 8.366e-02 4.914e-02 4.214e-02 2.795e-02
 19.629   0.051 7.210e-02 4.025e-02 3.612e-02 2.450e-02
 19.727   0.050 6.728e-02 3.489e-02 3.188e-02 2.339e-02
 19.824   0.050 7.275e-02 3.448e-02 3.332e-02 2.554e-02
 19.922   0.050 8.466e-02 3.291e-02 3.786e-02 2.500e-02
 20.020   0.050 9.291e-02 3.204e-02 3.804e-02 2.271e-02
 20.117   0.049 9.033e-02 2.937e-02 3.120e-02 1.975e-02
 20.215   0.049 9.147e-02 2.683e-02 2.360e-02 1.948e-02
 20.312   0.049 8.959e-02 2.403e-02 1.847e-02 2.127e-02
 20.410   0.049 9.575e-02 2.208e-02 1.676e-02 2.211e-02
 20.508   0.049 9.692e-02 2.339e-02 1.661e-02 2.084e-02
 20.605   0.048 8.686e-02 2.739e-02 1.721e-02 2.120e-02
 20.703   0.048 7.734e-02 3.134e-02 1.805e-02 2.019e-02
 20.801   0.048 7.355e-02 2.981e-02 2.022e-02 2.015e-02
 20.898   0.048 6.873e-02 2.929e-02 2.333e-02 1.694e-02
 20.996   0.047 6.367e-02 2.837e-02 2.217e-02 1.452e-02
 21.094   0.047 6.346e-02 2.677e-02 2.110e-02 1.428e-02
 21.191   0.047 6.352e-02 2.549e-02 2.055e-02 1.564e-02
 21.289   0.047 6.684e-02 2.693e-02 1.944e-02 1.602e-02
 21.387   0.047 6.573e-02 2.639e-02 2.036e-02 1.684e-02
 21.484   0.046 7.183e-02 2.990e-02 2.328e-02 1.999e-02
 21.582   0.046 8.122e-02 3.558e-02 2.774e-02 2.329e-02
 21.680   0.046 8.348e-02 4.226e-02 3.038e-02 2.742e-02
 21.777   0.046 7.904e-02 3.933e-02 2.932e-02 2.886e-02
 21.875   0.046 7.504e-02 3.555e-02 2.504e-02 3.035e-02
 21.973   0.045 6.337e-02 3.090e-02 2.216e-02 2.915e-02
 22.070   0.045 5.393e-02 3.013e-02 1.918e-02 2.827e-02
 22.168   0.045 4.794e-02 2.932e-02 1.818e-02 2.724e-02
 22.266   0.045 4.026e-02 2.463e-02 1.805e-02 2.700e-02
 22.363   0.045 3.525e-02 2.190e-02 1.931e-02 2.778e-02
 22.461   0.044 3.762e-02 2.101e-02 2.060e-02 2.680e-02
 22.559   0.044 4.500e-02 2.367e-02 1.993e-02 2.525e-02
 22.656   0.044 5.103e-02 2.823e-02 1.790e-02 2.364e-02
 22.754   0.044 4.286e-02 2.897e-02 1.734e-02 1.991e-02
 22.852   0.044 3.414e-02 3.016e-02 1.758e-02 1.781e-02
 22.949   0.043 2.912e-02 3.353e-02 1.723e-02 1.576e-02
 23.047   0.043 3.082e-02 3.746e-02 1.744e-02 1.565e-02
 23.145   0.043 3.401e-02 3.715e-02 1.683e-02 1.711e-02
 23.242   0.043 3.961e-02 3.694e-02 1.682e-02 2.007e-02
 23.340   0.043 4.162e-02 3.526e-02 1.865e-02 2.456e-02
 23.438   0.042 4.373e-02 3.569e-02 1.990e-02 2.782e-02
 23.535   0.042 4.952e-02 3.199e-02 2.003e-02 2.924e-02
 23.633   0.042 5.410e-02 3.092e-02 1.757e-02 2.618e-02
 23.730   0.042 5.257e-02 3.382e-02 1.672e-02 2.164e-02
 23.828   0.042 4.734e-02 3.463e-02 1.738e-02 1.704e-02
 23.926   0.042 4.470e-02 3.805e-02 1.752e-02 1.369e-02
 24.023   0.041 3.949e-02 4.272e-02 1.766e-02 1.255e-02
 24.121   0.041 3.711e-02 3.886e-02 1.952e-02 1.196e-02
 24.219   0.041 3.389e-02 3.777e-02 2.139e-02 1.292e-02
 24.316   0.041 3.038e-02 4.037e-02 2.286e-02 1.308e-02
 24.414   0.041 2.946e-02 4.824e-02 2.530e-02 1.245e-02
 24.512   0.041 2.762e-02 5.406e-02 2.677e-02 1.124e-02
 24.609   0.040 2.781e-02 5.277e-02 2.631e-02 1.015e-02
 24.707   0.040 2.841e-02 4.468e-02 2.654e-02 1.009e-02
 24.805   0.040 2.640e-02 3.975e-02 2.645e-02 1.005e-02
 24.902   0.040 2.608e-02 3.834e-02 2.829e-02 1.108e-02
 25.000   0.040 2.580e-02 3.484e-02 2.617e-02 1.190e-02
 25.098   0.040 2.846e-02 3.113e-02 2.263e-02 1.325e-02
 25.195   0.040 3.315e-02 3.060e-02 1.814e-02 1.482e-02
 25.293   0.039 3.917e-02 3.120e-02 1.648e-02 1.595e-02
 25.391   0.039 4.351e-02 2.862e-02 1.811e-02 1.683e-02
 25.488   0.039 4.396e-02 2.792e-02 2.119e-02 1.770e-02
 25.586   0.039 4.308e-02 2.806e-02 2.248e-02 1.543e-02
 25.684   0.039 4.232e-02 2.796e-02 2.137e-02 1.391e-02
 25.781   0.039 4.274e-02 2.757e-02 1.976e-02 1.150e-02
 25.879   0.038 4.157e-02 2.416e-02 1.813e-02 1.041e-02
 25.977   0.038 3.871e-02 2.403e-02 1.671e-02 9.511e-03
 26.074   0.038 3.539e-02 2.784e-02 1.549e-02 9.939e-03
 26.172   0.038 3.058e-02 3.390e-02 1.391e-02 1.001e-02
 26.270   0.038 2.839e-02 3.582e-02 1.196e-02 1.072e-02
 26.367   0.038 2.480e-02 3.651e-02 1.051e-02 1.018e-02
 26.465   0.038 2.416e-02 3.669e-02 1.057e-02 9.566e-03
 26.562   0.038 2.634e-02 3.857e-02 1.100e-02 8.904e-03
 26.660   0.037 2.602e-02 3.811e-02 1.255e-02 9.255e-03
 26.758   0.037 2.469e-02 3.522e-02 1.285e-02 9.963e-03
 26.855   0.037 2.375e-02 3.366e-02 1.396e-02 9.594e-03
 26.953   0.037 2.154e-02 3.029e-02 1.586e-02 8.731e-03
 27.051   0.037 2.188e-02 3.036e-02 1.468e-02 7.883e-03
 27.148   0.037 2.407e-02 3.498e-02 1.392e-02 7.783e-03
 27.246   0.037 2.425e-02 4.155e-02 1.392e-02 8.266e-03
 27.344   0.036 2.199e-02 4.643e-02 1.348e-02 8.684e-03
 27.441   0.036 2.127e-02 4.594e-02 1.245e-02 1.009e-02
 27.539   0.036 2.120e-02 4.498e-02 1.281e-02 1.173e-02
 27.637   0.036 1.969e-02 4.333e-02 1.385e-02 1.108e-02
 27.734   0.036 1.889e-02 4.250e-02 1.571e-02 1.079e-02
 27.832   0.036 1.786e-02 4.504e-02 1.534e-02 1.159e-02
 27.930   0.036 1.864e-02 4.559e-02 1.531e-02 1.336e-02
 28.027   0.036 1.969e-02 4.663e-02 1.671e-02 1.437e-02
 28.125   0.035 2.296e-02 4.338e-02 1.810e-02 1.524e-02
 28.223   0.035 2.855e-02 4.292e-02 1.829e-02 1.602e-02
 28.320   0.035 3.225e-02 4.330e-02 1.717e-02 1.660e-02
 28.418   0.035 3.566e-02 4.033e-02 1.680e-02 1.527e-02
 28.516   0.035 3.078e-02 4.052e-02 1.792e-02 1.440e-02
 28.613   0.035 2.716e-02 3.867e-02 1.647e-02 1.554e-02
 28.711   0.035 2.516e-02 3.705e-02 1.486e-02 1.757e-02
 28.809   0.035 2.617e-02 3.505e-02 1.331e-02 1.766e-02
 28.906   0.034 2.932e-02 3.496e-02 1.276e-02 1.710e-02
 29.004   0.034 2.699e-02 3.441e-02 1.366e-02 1.663e-02
 29.102   0.034 2.420e-02 3.602e-02 1.513e-02 1.587e-02
 29.199   0.034 2.479e-02 3.390e-02 1.694e-02 1.406e-02
 29.297   0.034 2.694e-02 3.021e-02 1.838e-02 1.324e-02
 29.395   0.034 2.981e-02 2.913e-02 1.874e-02 1.224e-02
 29.492   0.034 3.100e-02 2.873e-02 1.885e-02 1.216e-02
 29.590   0.034 3.333e-02 2.829e-02 1.830e-02 1.254e-02
 29.688   0.034 3.379e-02 2.893e-02 1.832e-02 1.234e-02
 29.785   0.033 3.544e-02 2.678e-02 1.704e-02 1.194e-02
 29.883   0.033 3.363e-02 2.461e-02 1.516e-02 1.122e-02
 29.980   0.033 3.084e-02 2.279e-02 1.373e-02 1.109e-02
